LabVIEW Measurement	
Writer_Version	2
Reader_Version	2
Separator	Tab
Decimal_Separator	.
Multi_Headings	Yes
X_Columns	One
Time_Pref	Relative
Operator	e014
Description	Hysteresis Loop Data
Date	2015/08/03
Time	16:08:53.4307065010070800781
***End_of_Header***	
	
Channels	2		
Samples	100	100	
Date	2015/08/03	2015/08/03	
Time	16:08:53.4307065010070800781	16:08:53.4307065010070800781	
Y_Unit_Label	V	V	
X_Dimension	Time	Time	
X0	0.0000000000000000E+0	0.0000000000000000E+0	
Delta_X	1.000000E-5	1.000000E-5	
***End_of_Header***			
X_Value	Applied Voltage	Sense Voltage	Comment
0.000000	2.679250	0.604562
1.000000E-5	2.829838	0.625934
2.000000E-5	2.985686	0.645004
3.000000E-5	3.143507	0.663088
4.000000E-5	3.302643	0.679856
5.000000E-5	3.466053	0.696296
6.000000E-5	3.632094	0.711092
7.000000E-5	3.808985	0.724572
8.000000E-5	3.988506	0.727531
9.000000E-5	3.820164	0.708790
1.000000E-4	3.674179	0.692350
0.000110	3.529510	0.675253
0.000120	3.372676	0.658484
0.000130	3.203676	0.640730
0.000140	3.032703	0.622317
0.000150	2.867320	0.602261
0.000160	2.706869	0.580560
0.000170	2.548391	0.558860
0.000180	2.390570	0.535187
0.000190	2.231434	0.510856
0.000200	2.070654	0.484881
0.000210	1.910202	0.457263
0.000220	1.749751	0.428329
0.000230	1.589628	0.398080
0.000240	1.430492	0.366187
0.000250	1.273329	0.333307
0.000260	1.118138	0.297798
0.000270	0.965907	0.262288
0.000280	0.816634	0.225134
0.000290	0.670321	0.187323
0.000300	0.528282	0.148196
0.000310	0.388216	0.109070
0.000320	0.250780	0.069286
0.000330	0.113015	0.028515
0.000340	-0.024749	-0.012255
0.000350	-0.162843	-0.053026
0.000360	-0.300608	-0.095111
0.000370	-0.439359	-0.136539
0.000380	-0.582384	-0.178625
0.000390	-0.732314	-0.221039
0.000400	-0.889149	-0.262796
0.000410	-1.055848	-0.304882
0.000420	-1.233068	-0.346639
0.000430	-1.421796	-0.388067
0.000440	-1.623676	-0.428837
0.000450	-1.838379	-0.468293
0.000460	-2.063603	-0.505775
0.000470	-2.283238	-0.533723
0.000480	-2.444347	-0.557396
0.000490	-2.606772	-0.579754
0.000500	-2.767881	-0.600468
0.000510	-2.930635	-0.620853
0.000520	-3.092731	-0.639923
0.000530	-3.253183	-0.658993
0.000540	-3.411333	-0.676748
0.000550	-3.567840	-0.693517
0.000560	-3.728621	-0.708641
0.000570	-3.897622	-0.724094
0.000580	-4.066294	-0.719491
0.000590	-3.949900	-0.704696
0.000600	-3.781228	-0.691544
0.000610	-3.597760	-0.676419
0.000620	-3.420211	-0.659980
0.000630	-3.249895	-0.642225
0.000640	-3.088457	-0.623155
0.000650	-2.929649	-0.603427
0.000660	-2.778074	-0.580740
0.000670	-2.630774	-0.556409
0.000680	-2.480186	-0.531421
0.000690	-2.319734	-0.506104
0.000700	-2.136267	-0.484075
0.000710	-1.939319	-0.461059
0.000720	-1.766702	-0.434098
0.000730	-1.629594	-0.400232
0.000740	-1.492816	-0.362092
0.000750	-1.325788	-0.333487
0.000760	-1.132457	-0.299292
0.000770	-0.991075	-0.253919
0.000780	-0.837200	-0.216436
0.000790	-0.658664	-0.172707
0.000800	-0.513337	-0.127991
0.000810	-0.343022	-0.078672
0.000820	-0.180598	-0.030339
0.000830	-0.021461	0.018651
0.000840	0.134058	0.066655
0.000850	0.296482	0.115317
0.000860	0.460551	0.162992
0.000870	0.619687	0.206722
0.000880	0.783755	0.248807
0.000890	0.941905	0.288920
0.000900	1.101699	0.327389
0.000910	1.262807	0.362899
0.000920	1.425560	0.395778
0.000930	1.589957	0.427014
0.000940	1.751066	0.456934
0.000950	1.910202	0.485210
0.000960	2.068681	0.512171
0.000970	2.226830	0.537488
0.000980	2.386953	0.560504
0.000990	2.470795	0.569217

